DATA: FREQUENCY(MHz), PHASE(DEG),  MODULATION, DELTAP, DELTAM
	 0.0750,	21.4291,	 0.9272,	 0.0138,	 0.0006
	 0.0945,	26.6937,	 0.8895,	 0.0103,	 0.0003
	 0.1190,	31.9329,	 0.8387,	 0.0088,	 0.0005
	 0.1498,	38.1640,	 0.7747,	 0.0129,	 0.0005
	 0.1887,	44.0374,	 0.6984,	 0.0097,	 0.0004
	 0.2376,	50.2214,	 0.6145,	 0.0136,	 0.0003
	 0.2993,	55.7762,	 0.5281,	 0.0119,	 0.0003
	 0.3769,	61.2496,	 0.4458,	 0.0224,	 0.0003
	 0.4746,	65.6981,	 0.3699,	 0.0147,	 0.0002
	 0.5978,	69.1696,	 0.3040,	 0.1711,	 0.0008
	 0.7528,	71.8261,	 0.2474,	 0.0281,	 0.0002
	 0.9481,	74.0486,	 0.2011,	 0.0464,	 0.0001
	 1.1940,	75.6262,	 0.1628,	 0.0783,	 0.0002
	 1.5037,	77.2318,	 0.1367,	 0.1101,	 0.0008
	 1.8938,	77.5027,	 0.1076,	 0.1374,	 0.0003
	 2.3851,	77.8668,	 0.0848,	 0.1228,	 0.0002
	 3.0037,	76.9699,	 0.0677,	 0.1085,	 0.0001
	 3.7829,	76.2592,	 0.0546,	 0.1288,	 0.0001
	 4.7642,	74.7332,	 0.0441,	 0.1128,	 0.0001
	 6.0000,	73.0656,	 0.0357,	 0.1420,	 0.0001
ENDDATA
